The quantum efficiency of EIGER X (450um Si) are 
X-ray wavelength (Angstrom  KeV )   efficiency (%)
0.7 17.7   46
0.8 15.5   60
0.9 13.8   73
1.0 12.4   83
1.1 11.3   91
1.2 10.3   96
1.3  9.5   98
1.4  8.9   99.1
1.5  8.3   99.7
1.6  7.7   99.9



The calculation was done at cxro.lbl.gov -> X-Ray database -> X-ray transmission of a solid


Si Density=2.33 Thickness=450. microns
 Photon Energy (eV), Transmission
    10000.      0.34547E-01
    10040.      0.35929E-01
    10080.      0.37343E-01
    10120.      0.38792E-01
    10160.      0.40272E-01
    10200.      0.41785E-01
    10240.      0.43330E-01
    10280.      0.44908E-01
    10320.      0.46518E-01
    10360.      0.48160E-01
    10400.      0.49833E-01
    10440.      0.51540E-01
    10480.      0.53279E-01
    10520.      0.55048E-01
    10560.      0.56850E-01
    10600.      0.58682E-01
    10640.      0.60545E-01
    10680.      0.62438E-01
    10720.      0.64361E-01
    10760.      0.66315E-01
    10800.      0.68299E-01
    10840.      0.70314E-01
    10880.      0.72357E-01
    10920.      0.74428E-01
    10960.      0.76528E-01
    11000.      0.78656E-01
    11040.      0.80811E-01
    11080.      0.82993E-01
    11120.      0.85204E-01
    11160.      0.87442E-01
    11200.      0.89706E-01
    11240.      0.91995E-01
    11280.      0.94310E-01
    11320.      0.96650E-01
    11360.      0.99015E-01
    11400.      0.10140    
    11440.      0.10382    
    11480.      0.10625    
    11520.      0.10871    
    11560.      0.11119    
    11600.      0.11370    
    11640.      0.11622    
    11680.      0.11877    
    11720.      0.12134    
    11760.      0.12392    
    11800.      0.12653    
    11840.      0.12916    
    11880.      0.13180    
    11920.      0.13447    
    11960.      0.13715    
    12000.      0.13985    
    12040.      0.14256    
    12080.      0.14529    
    12120.      0.14804    
    12160.      0.15081    
    12200.      0.15358    
    12240.      0.15638    
    12280.      0.15918    
    12320.      0.16201    
    12360.      0.16484    
    12400.      0.16769    
    12440.      0.17055    
    12480.      0.17342    
    12520.      0.17630    
    12560.      0.17920    
    12600.      0.18210    
    12640.      0.18502    
    12680.      0.18794    
    12720.      0.19088    
    12760.      0.19382    
    12800.      0.19677    
    12840.      0.19973    
    12880.      0.20270    
    12920.      0.20567    
    12960.      0.20865    
    13000.      0.21164    
    13040.      0.21463    
    13080.      0.21763    
    13120.      0.22063    
    13160.      0.22364    
    13200.      0.22665    
    13240.      0.22967    
    13280.      0.23269    
    13320.      0.23572    
    13360.      0.23875    
    13400.      0.24178    
    13440.      0.24481    
    13480.      0.24785    
    13520.      0.25088    
    13560.      0.25392    
    13600.      0.25696    
    13640.      0.26000    
    13680.      0.26303    
    13720.      0.26608    
    13760.      0.26912    
    13800.      0.27215    
    13840.      0.27519    
    13880.      0.27823    
    13920.      0.28127    
    13960.      0.28430    
    14000.      0.28733    
    14040.      0.29036    
    14080.      0.29339    
    14120.      0.29641    
    14160.      0.29944    
    14200.      0.30245    
    14240.      0.30547    
    14280.      0.30848    
    14320.      0.31148    
    14360.      0.31449    
    14400.      0.31749    
    14440.      0.32048    
    14480.      0.32347    
    14520.      0.32646    
    14560.      0.32943    
    14600.      0.33241    
    14640.      0.33538    
    14680.      0.33834    
    14720.      0.34129    
    14760.      0.34424    
    14800.      0.34719    
    14840.      0.35012    
    14880.      0.35305    
    14920.      0.35598    
    14960.      0.35889    
    15000.      0.36180    
    15040.      0.36471    
    15080.      0.36760    
    15120.      0.37049    
    15160.      0.37337    
    15200.      0.37625    
    15240.      0.37911    
    15280.      0.38197    
    15320.      0.38482    
    15360.      0.38766    
    15400.      0.39049    
    15440.      0.39331    
    15480.      0.39612    
    15520.      0.39893    
    15560.      0.40172    
    15600.      0.40451    
    15640.      0.40729    
    15680.      0.41006    
    15720.      0.41282    
    15760.      0.41557    
    15800.      0.41831    
    15840.      0.42105    
    15880.      0.42377    
    15920.      0.42648    
    15960.      0.42918    
    16000.      0.43188    
    16040.      0.43456    
    16080.      0.43723    
    16120.      0.43990    
    16160.      0.44255    
    16200.      0.44519    
    16240.      0.44782    
    16280.      0.45045    
    16320.      0.45306    
    16360.      0.45566    
    16400.      0.45825    
    16440.      0.46083    
    16480.      0.46340    
    16520.      0.46596    
    16560.      0.46851    
    16600.      0.47105    
    16640.      0.47358    
    16680.      0.47610    
    16720.      0.47860    
    16760.      0.48110    
    16800.      0.48358    
    16840.      0.48606    
    16880.      0.48852    
    16920.      0.49097    
    16960.      0.49342    
    17000.      0.49585    
    17040.      0.49827    
    17080.      0.50068    
    17120.      0.50307    
    17160.      0.50546    
    17200.      0.50784    
    17240.      0.51021    
    17280.      0.51257    
    17320.      0.51491    
    17360.      0.51724    
    17400.      0.51957    
    17440.      0.52188    
    17480.      0.52418    
    17520.      0.52647    
    17560.      0.52875    
    17600.      0.53102    
    17640.      0.53328    
    17680.      0.53553    
    17720.      0.53776    
    17760.      0.53999    
    17800.      0.54221    
    17840.      0.54441    
    17880.      0.54660    
    17920.      0.54878    
    17960.      0.55096    
    18000.      0.55312    
    18040.      0.55527    
    18080.      0.55741    
    18120.      0.55954    
    18160.      0.56166    
    18200.      0.56377    
    18240.      0.56586    
    18280.      0.56795    
    18320.      0.57003    
    18360.      0.57210    
    18400.      0.57415    
    18440.      0.57620    
    18480.      0.57823    
    18520.      0.58025    
    18560.      0.58227    
    18600.      0.58427    
    18640.      0.58627    
    18680.      0.58825    
    18720.      0.59023    
    18760.      0.59219    
    18800.      0.59414    
    18840.      0.59608    
    18880.      0.59802    
    18920.      0.59994    
    18960.      0.60185    
    19000.      0.60376    
    19040.      0.60565    
    19080.      0.60753    
    19120.      0.60940    
    19160.      0.61126    
    19200.      0.61312    
    19240.      0.61496    
    19280.      0.61680    
    19320.      0.61862    
    19360.      0.62043    
    19400.      0.62224    
    19440.      0.62403    
    19480.      0.62582    
    19520.      0.62759    
    19560.      0.62936    
    19600.      0.63112    
    19640.      0.63286    
    19680.      0.63460    
    19720.      0.63633    
    19760.      0.63805    
    19800.      0.63976    
    19840.      0.64146    
    19880.      0.64316    
    19920.      0.64484    
    19960.      0.64651    
    20000.      0.64818    
    20040.      0.64984    
    20080.      0.65149    
    20120.      0.65313    
    20160.      0.65476    
    20200.      0.65638    
    20240.      0.65799    
    20280.      0.65959    
    20320.      0.66119    
    20360.      0.66278    
    20400.      0.66435    
    20440.      0.66592    
    20480.      0.66748    
    20520.      0.66903    
    20560.      0.67057    
    20600.      0.67211    
    20640.      0.67363    
    20680.      0.67515    
    20720.      0.67666    
    20760.      0.67816    
    20800.      0.67965    
    20840.      0.68113    
    20880.      0.68261    
    20920.      0.68408    
    20960.      0.68553    
    21000.      0.68699    
    21040.      0.68843    
    21080.      0.68986    
    21120.      0.69129    
    21160.      0.69271    
    21200.      0.69412    
    21240.      0.69552    
    21280.      0.69692    
    21320.      0.69830    
    21360.      0.69968    
    21400.      0.70105    
    21440.      0.70242    
    21480.      0.70377    
    21520.      0.70512    
    21560.      0.70646    
    21600.      0.70780    
    21640.      0.70912    
    21680.      0.71044    
    21720.      0.71175    
    21760.      0.71306    
    21800.      0.71435    
    21840.      0.71564    
    21880.      0.71693    
    21920.      0.71820    
    21960.      0.71947    
    22000.      0.72073    
    22040.      0.72198    
    22080.      0.72323    
    22120.      0.72447    
    22160.      0.72570    
    22200.      0.72693    
    22240.      0.72815    
    22280.      0.72936    
    22320.      0.73056    
    22360.      0.73176    
    22400.      0.73296    
    22440.      0.73414    
    22480.      0.73532    
    22520.      0.73649    
    22560.      0.73766    
    22600.      0.73882    
    22640.      0.73997    
    22680.      0.74111    
    22720.      0.74225    
    22760.      0.74339    
    22800.      0.74451    
    22840.      0.74563    
    22880.      0.74675    
    22920.      0.74786    
    22960.      0.74896    
    23000.      0.75005    
    23040.      0.75114    
    23080.      0.75223    
    23120.      0.75331    
    23160.      0.75438    
    23200.      0.75544    
    23240.      0.75650    
    23280.      0.75756    
    23320.      0.75860    
    23360.      0.75965    
    23400.      0.76068    
    23440.      0.76171    
    23480.      0.76274    
    23520.      0.76376    
    23560.      0.76477    
    23600.      0.76578    
    23640.      0.76678    
    23680.      0.76778    
    23720.      0.76877    
    23760.      0.76975    
    23800.      0.77073    
    23840.      0.77171    
    23880.      0.77268    
    23920.      0.77364    
    23960.      0.77460    
    24000.      0.77555    
    24040.      0.77650    
    24080.      0.77744    
    24120.      0.77838    
    24160.      0.77931    
    24200.      0.78024    
    24240.      0.78116    
    24280.      0.78208    
    24320.      0.78299    
    24360.      0.78390    
    24400.      0.78480    
    24440.      0.78570    
    24480.      0.78659    
    24520.      0.78748    
    24560.      0.78836    
    24600.      0.78924    
    24640.      0.79011    
    24680.      0.79098    
    24720.      0.79184    
    24760.      0.79270    
    24800.      0.79355    
    24840.      0.79440    
    24880.      0.79525    
    24920.      0.79609    
    24960.      0.79692    
    25000.      0.79775    
    25040.      0.79858    
    25080.      0.79940    
    25120.      0.80022    
    25160.      0.80103    
    25200.      0.80184    
    25240.      0.80264    
    25280.      0.80344    
    25320.      0.80424    
    25360.      0.80503    
    25400.      0.80582    
    25440.      0.80660    
    25480.      0.80738    
    25520.      0.80815    
    25560.      0.80892    
    25600.      0.80969    
    25640.      0.81045    
    25680.      0.81121    
    25720.      0.81196    
    25760.      0.81271    
    25800.      0.81345    
    25840.      0.81419    
    25880.      0.81493    
    25920.      0.81566    
    25960.      0.81639    
    26000.      0.81712    
    26040.      0.81784    
    26080.      0.81856    
    26120.      0.81927    
    26160.      0.81998    
    26200.      0.82069    
    26240.      0.82139    
    26280.      0.82209    
    26320.      0.82278    
    26360.      0.82347    
    26400.      0.82416    
    26440.      0.82485    
    26480.      0.82553    
    26520.      0.82620    
    26560.      0.82688    
    26600.      0.82755    
    26640.      0.82821    
    26680.      0.82887    
    26720.      0.82953    
    26760.      0.83019    
    26800.      0.83084    
    26840.      0.83149    
    26880.      0.83213    
    26920.      0.83277    
    26960.      0.83341    
    27000.      0.83405    
    27040.      0.83468    
    27080.      0.83531    
    27120.      0.83593    
    27160.      0.83655    
    27200.      0.83717    
    27240.      0.83779    
    27280.      0.83840    
    27320.      0.83901    
    27360.      0.83961    
    27400.      0.84021    
    27440.      0.84081    
    27480.      0.84141    
    27520.      0.84200    
    27560.      0.84259    
    27600.      0.84318    
    27640.      0.84376    
    27680.      0.84434    
    27720.      0.84492    
    27760.      0.84550    
    27800.      0.84607    
    27840.      0.84664    
    27880.      0.84720    
    27920.      0.84776    
    27960.      0.84832    
    28000.      0.84888    
    28040.      0.84943    
    28080.      0.84999    
    28120.      0.85053    
    28160.      0.85108    
    28200.      0.85162    
    28240.      0.85216    
    28280.      0.85270    
    28320.      0.85323    
    28360.      0.85377    
    28400.      0.85429    
    28440.      0.85482    
    28480.      0.85534    
    28520.      0.85586    
    28560.      0.85638    
    28600.      0.85690    
    28640.      0.85741    
    28680.      0.85792    
    28720.      0.85843    
    28760.      0.85893    
    28800.      0.85944    
    28840.      0.85994    
    28880.      0.86044    
    28920.      0.86093    
    28960.      0.86142    
    29000.      0.86191    
    29040.      0.86240    
    29080.      0.86288    
    29120.      0.86337    
    29160.      0.86385    
    29200.      0.86433    
    29240.      0.86480    
    29280.      0.86527    
    29320.      0.86574    
    29360.      0.86621    
    29400.      0.86668    
    29440.      0.86714    
    29480.      0.86760    
    29520.      0.86806    
    29560.      0.86852    
    29600.      0.86897    
    29640.      0.86942    
    29680.      0.86987    
    29720.      0.87032    
    29760.      0.87077    
    29800.      0.87121    
    29840.      0.87165    
    29880.      0.87209    
    29920.      0.87253    
    29960.      0.87296    
    30000.      0.87339    